File: dati/raman/20250318_test_PCA_ZnO/peaks_table_aree.txt
103.636,308.697,382.769,429.597,515.936,948.341,960.934
-3.33559,-5.15947,20320.5,44924.5,0.256018,0.000128408,479544,37908.4,65398.6
-3.33559,-2.68957,8134.95,19543,0.340327,0.00966591,749936,131012,41951.6
-3.33559,-0.219674,79355.7,177370,0.419312,0.00375672,812485,36698.6,154194
-3.33559,2.25022,26922,86531.1,0.368335,0.00557847,724622,36865.8,117250
-3.33559,4.72012,29752.1,51432.1,0.294101,0.00516326,626562,80893.2,54158
-3.33559,7.19002,8996.73,69213.8,750.825,0,707472,46420.3,96774.7
-3.33559,9.65991,30775.6,77870.6,0.336278,0.00471772,660207,31527.3,117428
-2.8393,-5.15947,41579.1,86286.9,0.259609,0.00309824,531707,58324.2,57087.8
-2.8393,-2.68957,559.511,44777.2,0.333671,0.00832875,717123,73861.4,75651
-2.8393,-0.219674,43641,86201.2,0.387892,0.00592129,775900,68807.2,102954
-2.8393,2.25022,30641.9,46487.5,0.345631,0.00554866,707205,108333,38585.3
-2.8393,4.72012,21217.2,78202.4,288.186,0,627948,34690.6,89461.6
-2.8393,7.19002,71760,136289,0.380651,0.00459624,802970,16066.2,170428
-2.8393,9.65991,66312.2,143557,0.373823,0.00345169,742183,34443.4,131416
-2.34301,-5.15947,0.00177586,91289.5,10918.3,4933.55,497280,54832.3,53795.2
-2.34301,-2.68957,32872.8,70897.1,0.360838,0.0062164,740983,48953.1,104054
-2.34301,-0.219674,53650,62604.9,0.332398,0.00266443,640394,52930.6,85346.7
-2.34301,2.25022,73919.6,51465.4,0,0.00172102,704045,52510,84409.4
-2.34301,4.72012,20642.9,70599.2,0.339263,0.00472406,677575,55224.3,84055.8
-2.34301,7.19002,42455,82991.7,0.387965,0.00621683,805372,83515.8,89869.7
-2.34301,9.65991,27432.4,97896.5,0.377338,0.00684213,764912,32574.6,138100
-1.84673,-5.15947,954.029,0,2459.38,114204,470279,32299.2,64137.8
-1.84673,-2.68957,64714.2,80283,0.417748,0.00380507,772250,58891.6,104837
-1.84673,-0.219674,21682.7,19696.3,0.318859,0.00812619,643509,92232.7,49432
-1.84673,2.25022,50990,85060.6,0.359518,0.00251757,672433,42997.4,94095.2
-1.84673,4.72012,0.00626401,0,14984.6,38197.1,618670,631.215,115676
-1.84673,7.19002,34285.4,57721.8,0.359199,0.00454479,725012,54681.9,103741
-1.84673,9.65991,73765.2,131111,0.34801,0.00349273,694706,35728.3,117702
-1.35044,-5.15947,51695.4,66060.8,0.255114,0.00266954,532733,50487.3,76109.7
-1.35044,-2.68957,53206.6,71473,0.323265,0.00338988,640410,51725.9,94574.7
-1.35044,-0.219674,87474.6,90789.8,0.351919,0.00310612,688417,65250.3,94832.7
-1.35044,2.25022,21196.4,45591.8,0.336021,0.00482895,600659,29578.1,91485.1
-1.35044,4.72012,28034.1,67137.7,0.32595,0.00533994,630408,35120.7,100586
-1.35044,7.19002,45034.3,76792.2,1.02932,0.00410321,709432,56820.6,99539.8
-1.35044,9.65991,21335.4,46067.9,0.314172,0.00604513,622164,59460.9,73871.9
-0.854155,-5.15947,43896.3,55795.3,0.282752,0.00421616,612300,55618.5,90170.5
-0.854155,-2.68957,6504.05,12152.3,0.290114,0.00846125,634088,97361.9,36802.7
-0.854155,-0.219674,65111,75370.9,0.380693,0.00376509,706732,67532.9,108546
-0.854155,2.25022,5459.89,38649.1,0,188559,924893,50635.4,136919
-0.854155,4.72012,13407.8,36308.7,0,0,619915,46559.9,101830
-0.854155,7.19002,14338.2,51043,0.00319593,30505.8,521992,32433.2,70709.6
-0.854155,9.65991,55280.4,67005.9,0.303166,0.00276966,622377,47077.6,88257
-0.357869,-5.15947,0.002882,51265.1,0.304106,0.0103653,701885,60609.4,94044
-0.357869,-2.68957,115531,110466,0.533033,0.00721232,1.05017e+06,96753.1,178474
-0.357869,-0.219674,11156,105864,0,2057.66,928059,55434.4,151807
-0.357869,2.25022,12889.9,101451,0,4834.8,833846,51794.5,145396
-0.357869,4.72012,7339.28,36109.9,1202.29,72507,625822,29945.4,82335.9
-0.357869,7.19002,47249.9,90277.4,0.309456,0.004678,642818,48373.1,95847.5
-0.357869,9.65991,23394.1,69008.5,0.308452,0.00534803,661043,45325.8,89758.1
0.138418,-5.15947,0.00273971,59428.5,0.348153,0.0100296,808727,100387,88095.3
0.138418,-2.68957,93766.4,87816.2,0.411483,0.00611672,967571,96309,149307
0.138418,-0.219674,0.00167922,0,0,168092,505290,82650.1,61455.4
0.138418,2.25022,0.000190809,59102.5,0,1433.51,424792,34095.3,59280.1
0.138418,4.72012,57458.6,53167.7,0.310258,0.00392682,645114,52375.1,86188
0.138418,7.19002,16110,81694.8,0.31019,0.00451064,649215,82948,54158
0.138418,9.65991,10867.8,54381.4,623.588,0,654942,40633.6,89262.4
0.634704,-5.15947,86681.1,70787.1,0.453658,0.00594485,1.05343e+06,81773.4,155180
0.634704,-2.68957,83696.3,125676,0.556367,0.0104052,1.12242e+06,105963,154999
0.634704,-0.219674,6631.92,7161.52,0,176296,703954,49137.3,123867
0.634704,2.25022,8919.03,52459.1,80.1316,125880,813208,54197.5,108920
0.634704,4.72012,36173.3,19200.7,11914.2,0.00260749,664502,61412.2,67709.4
0.634704,7.19002,100320,25433.1,782.277,466.628,631751,36065.9,73232.5
0.634704,9.65991,56338.5,85321.7,0.21106,0.00334709,776181,57531.5,100429
1.13099,-5.15947,87310.5,177343,0.573372,0.00999018,1.21962e+06,96960.4,176330
1.13099,-2.68957,25177.7,90466.2,1006.89,11514.6,950933,59028.9,160036
1.13099,-0.219674,147362,56555.4,49.0677,0.00659852,1.10859e+06,110372,167469
1.13099,2.25022,71625.9,218399,0.225722,0.00568947,533288,2552.09,129658
1.13099,4.72012,55642,180373,0.284516,0.00420463,603574,29777.2,108045
1.13099,7.19002,12625.1,26495.2,0,1929.25,578028,35369.1,81495.3
1.13099,9.65991,59168.5,109763,0.368075,0.0028539,730468,52836.6,110477
1.62728,-5.15947,80385.5,130977,0.572404,0.00496372,1.01377e+06,82261.4,150195
1.62728,-2.68957,10910.9,92388.8,0,0,891858,49112.7,150267
1.62728,-0.219674,16791.3,156791,0,20735.4,1.03643e+06,33208.3,201737
1.62728,2.25022,24269.4,181980,6923,28014.4,590733,0,144957
1.62728,4.72012,0.00562303,88302,0,0.0011103,582277,21115.3,100243
1.62728,7.19002,47492.2,87937.6,0.306991,0.00268867,576440,39489.4,81127.2
1.62728,9.65991,25904.8,44492.6,0.244102,0.00512124,491371,41246.9,78741.6
2.12356,-5.15947,46217,87828.2,0.338748,0.00435507,637945,32885.6,123775
2.12356,-2.68957,112684,308311,0.41188,0.00349588,887071,10277.1,226550
2.12356,-0.219674,167340,78896.6,7889.88,36399.7,1.00127e+06,49770.6,145501
2.12356,2.25022,9182.6,407680,0.000817414,128305,535600,61931.7,174512
2.12356,4.72012,3375.65,100274,1297.21,3296.35,603612,10975.8,123067
2.12356,7.19002,49885.9,98917.7,0.320213,0.00219691,553500,8746.56,137757
2.12356,9.65991,6203.3,49641.4,0.374826,0.00746849,742608,108438,72285.1
2.61985,-5.15947,0.00253905,43402.1,0.303986,0.00804277,660933,65518,80947.3
2.61985,-2.68957,14843.5,102735,269.191,0,777602,9485.26,180131
2.61985,-0.219674,186826,77331.3,2610.95,41231.1,916946,0,181853
2.61985,2.25022,148103,98260.7,8712.61,50502.6,885624,2429.01,180485
2.61985,4.72012,10540.1,295532,0.000107358,33794.9,743256,86536.9,168562
2.61985,7.19002,59822.2,123205,0.314062,0.00157548,562963,7574.05,127521
2.61985,9.65991,41389.7,55940,0.361128,0.00221104,636833,57608.6,99749.8
3.11613,-5.15947,52282,68644,0.372773,0.00465748,739473,65730.3,101573
3.11613,-2.68957,0.000312532,732053,5183.62,0.00732075,777327,45772.3,158802
3.11613,-0.219674,168827,85824.1,5075.43,37105.8,981558,3375.68,197806
3.11613,2.25022,9892.45,34507.8,1119.43,70216.3,717966,0,163657
3.11613,4.72012,0.00439594,369746,4589.99,20166.8,915076,39839.8,175305
3.11613,7.19002,68824.3,130096,0.338308,0.00145847,604259,18010.8,124141
3.11613,9.65991,20932.9,78644.1,0.329031,0.00607303,664703,35726.1,118672
3.61242,-5.15947,43788.8,124271,0.337634,0.00487366,789724,61744.1,128836
3.61242,-2.68957,134421,437118,0.479374,0.00284292,958800,42502.9,194452
3.61242,-0.219674,137787,77637,0,0,982194,28338.8,157524
3.61242,2.25022,98075.2,314117,0.461174,0.00490513,937849,26205.9,201928
3.61242,4.72012,45956.4,67775.7,0.30848,0.00267338,564251,52414,80173.1
3.61242,7.19002,91675.4,53883.1,0.346887,0.00233431,880815,53312.6,115963
3.61242,9.65991,4331.73,36045.6,0,126086,640378,35440.3,92172.9
4.10871,-5.15947,58408.2,109935,0.393354,0.00489392,722659,20428.9,162932
4.10871,-2.68957,24324.4,90289,0.361849,0.00666877,738912,45604.5,122904
4.10871,-0.219674,84868.9,139257,0.419752,0.0046291,854063,67722.8,139280
4.10871,2.25022,28178.3,71025.6,0.340128,0.00451092,659950,58860.8,88676.1
4.10871,4.72012,4176.23,73482,0,1355.78,666943,36861.3,110014
4.10871,7.19002,154061,72413.7,0.490167,0.00214764,1.00158e+06,67106.8,134361
4.10871,9.65991,33333.5,102529,0.356791,0.0033629,709232,54372.6,96179.7